Theta [deg.]  Phi   [deg.]  Abs(Gain)[dBi   ]   Abs(Theta)[dBi   ]  Phase(Theta)[deg.]  Abs(Phi  )[dBi   ]  Phase(Phi  )[deg.]  Ax.Ratio[dB    ]    
------------------------------------------------------------------------------------------------------------------------------------------------------
   0.000          90.000           -5.468e-01          -5.468e-01             323.687          -1.048e+02             227.966           4.000e+01     
   1.000          90.000           -5.514e-01          -5.514e-01             323.648          -1.049e+02             226.791           4.000e+01     
   2.000          90.000           -5.587e-01          -5.587e-01             323.606          -1.049e+02             225.608           4.000e+01     
   3.000          90.000           -5.688e-01          -5.688e-01             323.562          -1.049e+02             224.419           4.000e+01     
   4.000          90.000           -5.817e-01          -5.817e-01             323.515          -1.050e+02             223.225           4.000e+01     
   5.000          90.000           -5.973e-01          -5.973e-01             323.466          -1.050e+02             222.028           4.000e+01     
   6.000          90.000           -6.157e-01          -6.157e-01             323.414          -1.051e+02             220.828           4.000e+01     
   7.000          90.000           -6.369e-01          -6.369e-01             323.359          -1.051e+02             219.626           4.000e+01     
   8.000          90.000           -6.608e-01          -6.608e-01             323.302          -1.052e+02             218.424           4.000e+01     
   9.000          90.000           -6.875e-01          -6.875e-01             323.242          -1.052e+02             217.223           4.000e+01     
  10.000          90.000           -7.169e-01          -7.169e-01             323.180          -1.053e+02             216.023           4.000e+01     
  11.000          90.000           -7.490e-01          -7.490e-01             323.115          -1.053e+02             214.827           4.000e+01     
  12.000          90.000           -7.838e-01          -7.838e-01             323.047          -1.054e+02             213.634           4.000e+01     
  13.000          90.000           -8.214e-01          -8.214e-01             322.977          -1.054e+02             212.447           4.000e+01     
  14.000          90.000           -8.617e-01          -8.617e-01             322.904          -1.054e+02             211.266           4.000e+01     
  15.000          90.000           -9.046e-01          -9.046e-01             322.829          -1.055e+02             210.092           4.000e+01     
  16.000          90.000           -9.503e-01          -9.503e-01             322.750          -1.055e+02             208.926           4.000e+01     
  17.000          90.000           -9.986e-01          -9.986e-01             322.669          -1.056e+02             207.770           4.000e+01     
  18.000          90.000           -1.050e+00          -1.050e+00             322.586          -1.057e+02             206.625           4.000e+01     
  19.000          90.000           -1.103e+00          -1.103e+00             322.499          -1.057e+02             205.490           4.000e+01     
  20.000          90.000           -1.159e+00          -1.159e+00             322.410          -1.058e+02             204.368           4.000e+01     
  21.000          90.000           -1.218e+00          -1.218e+00             322.318          -1.058e+02             203.259           4.000e+01     
  22.000          90.000           -1.280e+00          -1.280e+00             322.223          -1.059e+02             202.165           4.000e+01     
  23.000          90.000           -1.344e+00          -1.344e+00             322.125          -1.059e+02             201.085           4.000e+01     
  24.000          90.000           -1.411e+00          -1.411e+00             322.024          -1.060e+02             200.021           4.000e+01     
  25.000          90.000           -1.480e+00          -1.480e+00             321.921          -1.061e+02             198.973           4.000e+01     
  26.000          90.000           -1.552e+00          -1.552e+00             321.814          -1.061e+02             197.943           4.000e+01     
  27.000          90.000           -1.626e+00          -1.626e+00             321.704          -1.062e+02             196.931           4.000e+01     
  28.000          90.000           -1.703e+00          -1.703e+00             321.591          -1.063e+02             195.937           4.000e+01     
  29.000          90.000           -1.782e+00          -1.782e+00             321.475          -1.063e+02             194.963           4.000e+01     
  30.000          90.000           -1.864e+00          -1.864e+00             321.355          -1.064e+02             194.008           4.000e+01     
  31.000          90.000           -1.948e+00          -1.948e+00             321.232          -1.065e+02             193.074           4.000e+01     
  32.000          90.000           -2.034e+00          -2.034e+00             321.106          -1.066e+02             192.161           4.000e+01     
  33.000          90.000           -2.123e+00          -2.123e+00             320.976          -1.067e+02             191.270           4.000e+01     
  34.000          90.000           -2.215e+00          -2.215e+00             320.842          -1.068e+02             190.401           4.000e+01     
  35.000          90.000           -2.309e+00          -2.309e+00             320.705          -1.069e+02             189.554           4.000e+01     
  36.000          90.000           -2.405e+00          -2.405e+00             320.564          -1.069e+02             188.731           4.000e+01     
  37.000          90.000           -2.503e+00          -2.503e+00             320.419          -1.071e+02             187.931           4.000e+01     
  38.000          90.000           -2.604e+00          -2.604e+00             320.270          -1.072e+02             187.156           4.000e+01     
  39.000          90.000           -2.707e+00          -2.707e+00             320.116          -1.073e+02             186.405           4.000e+01     
  40.000          90.000           -2.812e+00          -2.812e+00             319.959          -1.074e+02             185.680           4.000e+01     
  41.000          90.000           -2.920e+00          -2.920e+00             319.796          -1.075e+02             184.980           4.000e+01     
  42.000          90.000           -3.029e+00          -3.029e+00             319.630          -1.076e+02             184.307           4.000e+01     
  43.000          90.000           -3.141e+00          -3.141e+00             319.458          -1.078e+02             183.661           4.000e+01     
  44.000          90.000           -3.255e+00          -3.255e+00             319.281          -1.079e+02             183.043           4.000e+01     
  45.000          90.000           -3.371e+00          -3.371e+00             319.099          -1.081e+02             182.454           4.000e+01     
  46.000          90.000           -3.490e+00          -3.490e+00             318.912          -1.082e+02             181.895           4.000e+01     
  47.000          90.000           -3.610e+00          -3.610e+00             318.719          -1.084e+02             181.365           4.000e+01     
  48.000          90.000           -3.732e+00          -3.732e+00             318.521          -1.086e+02             180.868           4.000e+01     
  49.000          90.000           -3.857e+00          -3.857e+00             318.316          -1.088e+02             180.403           4.000e+01     
  50.000          90.000           -3.983e+00          -3.983e+00             318.105          -1.089e+02             179.972           4.000e+01     
  51.000          90.000           -4.111e+00          -4.111e+00             317.887          -1.091e+02             179.576           4.000e+01     
  52.000          90.000           -4.242e+00          -4.242e+00             317.663          -1.093e+02             179.218           4.000e+01     
  53.000          90.000           -4.374e+00          -4.374e+00             317.431          -1.096e+02             178.899           4.000e+01     
  54.000          90.000           -4.508e+00          -4.508e+00             317.192          -1.098e+02             178.622           4.000e+01     
  55.000          90.000           -4.643e+00          -4.643e+00             316.945          -1.100e+02             178.388           4.000e+01     
  56.000          90.000           -4.781e+00          -4.781e+00             316.690          -1.103e+02             178.202           4.000e+01     
  57.000          90.000           -4.920e+00          -4.920e+00             316.426          -1.106e+02             178.066           4.000e+01     
  58.000          90.000           -5.062e+00          -5.062e+00             316.153          -1.108e+02             177.984           4.000e+01     
  59.000          90.000           -5.204e+00          -5.204e+00             315.872          -1.111e+02             177.961           4.000e+01     
  60.000          90.000           -5.349e+00          -5.349e+00             315.580          -1.114e+02             178.003           4.000e+01     
  61.000          90.000           -5.495e+00          -5.495e+00             315.278          -1.118e+02             178.116           4.000e+01     
  62.000          90.000           -5.643e+00          -5.643e+00             314.965          -1.121e+02             178.307           4.000e+01     
  63.000          90.000           -5.792e+00          -5.792e+00             314.642          -1.125e+02             178.586           4.000e+01     
  64.000          90.000           -5.943e+00          -5.943e+00             314.306          -1.129e+02             178.963           4.000e+01     
  65.000          90.000           -6.095e+00          -6.095e+00             313.958          -1.133e+02             179.452           4.000e+01     
  66.000          90.000           -6.249e+00          -6.249e+00             313.598          -1.137e+02             180.069           4.000e+01     
  67.000          90.000           -6.404e+00          -6.404e+00             313.224          -1.142e+02             180.833           4.000e+01     
  68.000          90.000           -6.560e+00          -6.560e+00             312.836          -1.147e+02             181.768           4.000e+01     
  69.000          90.000           -6.718e+00          -6.718e+00             312.433          -1.152e+02             182.905           4.000e+01     
  70.000          90.000           -6.877e+00          -6.877e+00             312.015          -1.157e+02             184.281           4.000e+01     
  71.000          90.000           -7.037e+00          -7.037e+00             311.580          -1.163e+02             185.943           4.000e+01     
  72.000          90.000           -7.198e+00          -7.198e+00             311.129          -1.169e+02             187.951           4.000e+01     
  73.000          90.000           -7.360e+00          -7.360e+00             310.660          -1.176e+02             190.381           4.000e+01     
  74.000          90.000           -7.523e+00          -7.523e+00             310.172          -1.183e+02             193.327           4.000e+01     
  75.000          90.000           -7.687e+00          -7.687e+00             309.666          -1.190e+02             196.908           4.000e+01     
  76.000          90.000           -7.852e+00          -7.852e+00             309.139          -1.198e+02             201.266           4.000e+01     
  77.000          90.000           -8.017e+00          -8.017e+00             308.591          -1.205e+02             206.561           4.000e+01     
  78.000          90.000           -8.184e+00          -8.184e+00             308.021          -1.212e+02             212.948           4.000e+01     
  79.000          90.000           -8.350e+00          -8.350e+00             307.428          -1.219e+02             220.528           4.000e+01     
  80.000          90.000           -8.517e+00          -8.517e+00             306.811          -1.223e+02             229.259           4.000e+01     
  81.000          90.000           -8.685e+00          -8.685e+00             306.169          -1.226e+02             238.875           4.000e+01     
  82.000          90.000           -8.852e+00          -8.852e+00             305.501          -1.226e+02             248.860           4.000e+01     
  83.000          90.000           -9.020e+00          -9.020e+00             304.806          -1.223e+02             258.582           4.000e+01     
  84.000          90.000           -9.187e+00          -9.187e+00             304.084          -1.218e+02             267.500           4.000e+01     
  85.000          90.000           -9.354e+00          -9.354e+00             303.332          -1.212e+02             275.312           4.000e+01     
  86.000          90.000           -9.521e+00          -9.521e+00             302.550          -1.204e+02             281.952           4.000e+01     
  87.000          90.000           -9.686e+00          -9.686e+00             301.737          -1.196e+02             287.506           4.000e+01     
  88.000          90.000           -9.851e+00          -9.851e+00             300.892          -1.189e+02             292.125           4.000e+01     
  89.000          90.000           -1.002e+01          -1.002e+01             300.014          -1.181e+02             295.971           4.000e+01     
  90.000          90.000           -1.018e+01          -1.018e+01             299.102          -1.173e+02             299.189           4.000e+01     
  91.000          90.000           -1.034e+01          -1.034e+01             298.155          -1.166e+02             301.901           4.000e+01     
  92.000          90.000           -1.050e+01          -1.050e+01             297.173          -1.160e+02             304.205           4.000e+01     
  93.000          90.000           -1.065e+01          -1.065e+01             296.154          -1.153e+02             306.179           4.000e+01     
  94.000          90.000           -1.081e+01          -1.081e+01             295.098          -1.147e+02             307.884           4.000e+01     
  95.000          90.000           -1.096e+01          -1.096e+01             294.004          -1.142e+02             309.369           4.000e+01     
  96.000          90.000           -1.111e+01          -1.111e+01             292.872          -1.136e+02             310.674           4.000e+01     
  97.000          90.000           -1.125e+01          -1.125e+01             291.703          -1.131e+02             311.829           4.000e+01     
  98.000          90.000           -1.139e+01          -1.139e+01             290.495          -1.127e+02             312.859           4.000e+01     
  99.000          90.000           -1.153e+01          -1.153e+01             289.249          -1.122e+02             313.785           4.000e+01     
 100.000          90.000           -1.166e+01          -1.166e+01             287.965          -1.118e+02             314.622           4.000e+01     
 101.000          90.000           -1.179e+01          -1.179e+01             286.645          -1.114e+02             315.385           4.000e+01     
 102.000          90.000           -1.191e+01          -1.191e+01             285.288          -1.110e+02             316.085           4.000e+01     
 103.000          90.000           -1.202e+01          -1.202e+01             283.897          -1.106e+02             316.732           4.000e+01     
 104.000          90.000           -1.213e+01          -1.213e+01             282.472          -1.103e+02             317.333           4.000e+01     
 105.000          90.000           -1.224e+01          -1.224e+01             281.015          -1.099e+02             317.895           4.000e+01     
 106.000          90.000           -1.233e+01          -1.233e+01             279.529          -1.096e+02             318.424           4.000e+01     
 107.000          90.000           -1.242e+01          -1.242e+01             278.015          -1.093e+02             318.925           4.000e+01     
 108.000          90.000           -1.250e+01          -1.250e+01             276.477          -1.090e+02             319.402           4.000e+01     
 109.000          90.000           -1.257e+01          -1.257e+01             274.917          -1.087e+02             319.858           4.000e+01     
 110.000          90.000           -1.263e+01          -1.263e+01             273.338          -1.084e+02             320.298           4.000e+01     
 111.000          90.000           -1.269e+01          -1.269e+01             271.743          -1.082e+02             320.723           4.000e+01     
 112.000          90.000           -1.273e+01          -1.273e+01             270.137          -1.079e+02             321.136           4.000e+01     
 113.000          90.000           -1.277e+01          -1.277e+01             268.523          -1.077e+02             321.540           4.000e+01     
 114.000          90.000           -1.279e+01          -1.279e+01             266.904          -1.075e+02             321.936           4.000e+01     
 115.000          90.000           -1.281e+01          -1.281e+01             265.285          -1.073e+02             322.326           4.000e+01     
 116.000          90.000           -1.282e+01          -1.282e+01             263.670          -1.071e+02             322.712           4.000e+01     
 117.000          90.000           -1.282e+01          -1.282e+01             262.061          -1.069e+02             323.095           4.000e+01     
 118.000          90.000           -1.282e+01          -1.282e+01             260.464          -1.067e+02             323.476           4.000e+01     
 119.000          90.000           -1.280e+01          -1.280e+01             258.881          -1.065e+02             323.856           4.000e+01     
 120.000          90.000           -1.278e+01          -1.278e+01             257.316          -1.063e+02             324.236           4.000e+01     
 121.000          90.000           -1.274e+01          -1.274e+01             255.772          -1.061e+02             324.618           4.000e+01     
 122.000          90.000           -1.270e+01          -1.270e+01             254.252          -1.060e+02             325.002           4.000e+01     
 123.000          90.000           -1.266e+01          -1.266e+01             252.759          -1.058e+02             325.389           4.000e+01     
 124.000          90.000           -1.260e+01          -1.260e+01             251.295          -1.057e+02             325.779           4.000e+01     
 125.000          90.000           -1.255e+01          -1.255e+01             249.863          -1.056e+02             326.175           4.000e+01     
 126.000          90.000           -1.248e+01          -1.248e+01             248.464          -1.054e+02             326.575           4.000e+01     
 127.000          90.000           -1.241e+01          -1.241e+01             247.099          -1.053e+02             326.981           4.000e+01     
 128.000          90.000           -1.234e+01          -1.234e+01             245.771          -1.052e+02             327.393           4.000e+01     
 129.000          90.000           -1.226e+01          -1.226e+01             244.480          -1.051e+02             327.811           4.000e+01     
