Theta [deg.]  Phi   [deg.]  Abs(Gain)[dBi   ]   Abs(Theta)[dBi   ]  Phase(Theta)[deg.]  Abs(Phi  )[dBi   ]  Phase(Phi  )[deg.]  Ax.Ratio[dB    ]    
------------------------------------------------------------------------------------------------------------------------------------------------------
   0.000          90.000           -7.279e-01          -7.279e-01              85.954          -1.045e+02             348.104           4.000e+01     
   1.000          90.000           -7.326e-01          -7.326e-01              85.914          -1.046e+02             346.985           4.000e+01     
   2.000          90.000           -7.401e-01          -7.401e-01              85.872          -1.046e+02             345.859           4.000e+01     
   3.000          90.000           -7.503e-01          -7.503e-01              85.828          -1.046e+02             344.729           4.000e+01     
   4.000          90.000           -7.633e-01          -7.633e-01              85.781          -1.047e+02             343.595           4.000e+01     
   5.000          90.000           -7.791e-01          -7.791e-01              85.731          -1.047e+02             342.459           4.000e+01     
   6.000          90.000           -7.975e-01          -7.975e-01              85.678          -1.048e+02             341.320           4.000e+01     
   7.000          90.000           -8.188e-01          -8.188e-01              85.623          -1.048e+02             340.182           4.000e+01     
   8.000          90.000           -8.427e-01          -8.427e-01              85.565          -1.048e+02             339.043           4.000e+01     
   9.000          90.000           -8.694e-01          -8.694e-01              85.505          -1.049e+02             337.906           4.000e+01     
  10.000          90.000           -8.988e-01          -8.988e-01              85.442          -1.049e+02             336.770           4.000e+01     
  11.000          90.000           -9.309e-01          -9.309e-01              85.376          -1.050e+02             335.638           4.000e+01     
  12.000          90.000           -9.658e-01          -9.658e-01              85.308          -1.050e+02             334.510           4.000e+01     
  13.000          90.000           -1.003e+00          -1.003e+00              85.236          -1.051e+02             333.388           4.000e+01     
  14.000          90.000           -1.043e+00          -1.043e+00              85.163          -1.051e+02             332.271           4.000e+01     
  15.000          90.000           -1.086e+00          -1.086e+00              85.086          -1.052e+02             331.161           4.000e+01     
  16.000          90.000           -1.132e+00          -1.132e+00              85.007          -1.052e+02             330.059           4.000e+01     
  17.000          90.000           -1.180e+00          -1.180e+00              84.924          -1.053e+02             328.966           4.000e+01     
  18.000          90.000           -1.231e+00          -1.231e+00              84.839          -1.053e+02             327.882           4.000e+01     
  19.000          90.000           -1.284e+00          -1.284e+00              84.752          -1.054e+02             326.809           4.000e+01     
  20.000          90.000           -1.341e+00          -1.341e+00              84.661          -1.054e+02             325.748           4.000e+01     
  21.000          90.000           -1.399e+00          -1.399e+00              84.568          -1.055e+02             324.698           4.000e+01     
  22.000          90.000           -1.461e+00          -1.461e+00              84.471          -1.055e+02             323.661           4.000e+01     
  23.000          90.000           -1.524e+00          -1.524e+00              84.372          -1.056e+02             322.638           4.000e+01     
  24.000          90.000           -1.591e+00          -1.591e+00              84.269          -1.057e+02             321.630           4.000e+01     
  25.000          90.000           -1.660e+00          -1.660e+00              84.163          -1.057e+02             320.636           4.000e+01     
  26.000          90.000           -1.731e+00          -1.731e+00              84.055          -1.058e+02             319.658           4.000e+01     
  27.000          90.000           -1.805e+00          -1.805e+00              83.943          -1.059e+02             318.696           4.000e+01     
  28.000          90.000           -1.882e+00          -1.882e+00              83.828          -1.059e+02             317.751           4.000e+01     
  29.000          90.000           -1.961e+00          -1.961e+00              83.709          -1.060e+02             316.824           4.000e+01     
  30.000          90.000           -2.042e+00          -2.042e+00              83.587          -1.061e+02             315.914           4.000e+01     
  31.000          90.000           -2.126e+00          -2.126e+00              83.462          -1.062e+02             315.023           4.000e+01     
  32.000          90.000           -2.212e+00          -2.212e+00              83.333          -1.063e+02             314.151           4.000e+01     
  33.000          90.000           -2.301e+00          -2.301e+00              83.200          -1.064e+02             313.299           4.000e+01     
  34.000          90.000           -2.392e+00          -2.392e+00              83.064          -1.064e+02             312.466           4.000e+01     
  35.000          90.000           -2.485e+00          -2.485e+00              82.923          -1.065e+02             311.655           4.000e+01     
  36.000          90.000           -2.581e+00          -2.581e+00              82.779          -1.066e+02             310.864           4.000e+01     
  37.000          90.000           -2.679e+00          -2.679e+00              82.631          -1.068e+02             310.094           4.000e+01     
  38.000          90.000           -2.779e+00          -2.779e+00              82.478          -1.069e+02             309.347           4.000e+01     
  39.000          90.000           -2.882e+00          -2.882e+00              82.321          -1.070e+02             308.622           4.000e+01     
  40.000          90.000           -2.986e+00          -2.986e+00              82.159          -1.071e+02             307.920           4.000e+01     
  41.000          90.000           -3.093e+00          -3.093e+00              81.993          -1.072e+02             307.241           4.000e+01     
  42.000          90.000           -3.202e+00          -3.202e+00              81.822          -1.074e+02             306.587           4.000e+01     
  43.000          90.000           -3.314e+00          -3.314e+00              81.646          -1.075e+02             305.957           4.000e+01     
  44.000          90.000           -3.427e+00          -3.427e+00              81.465          -1.077e+02             305.353           4.000e+01     
  45.000          90.000           -3.543e+00          -3.543e+00              81.278          -1.078e+02             304.775           4.000e+01     
  46.000          90.000           -3.660e+00          -3.660e+00              81.086          -1.080e+02             304.223           4.000e+01     
  47.000          90.000           -3.780e+00          -3.780e+00              80.888          -1.081e+02             303.700           4.000e+01     
  48.000          90.000           -3.901e+00          -3.901e+00              80.683          -1.083e+02             303.205           4.000e+01     
  49.000          90.000           -4.025e+00          -4.025e+00              80.473          -1.085e+02             302.739           4.000e+01     
  50.000          90.000           -4.150e+00          -4.150e+00              80.256          -1.087e+02             302.305           4.000e+01     
  51.000          90.000           -4.278e+00          -4.278e+00              80.032          -1.089e+02             301.903           4.000e+01     
  52.000          90.000           -4.407e+00          -4.407e+00              79.801          -1.091e+02             301.535           4.000e+01     
  53.000          90.000           -4.539e+00          -4.539e+00              79.562          -1.093e+02             301.202           4.000e+01     
  54.000          90.000           -4.672e+00          -4.672e+00              79.316          -1.096e+02             300.907           4.000e+01     
  55.000          90.000           -4.807e+00          -4.807e+00              79.061          -1.098e+02             300.652           4.000e+01     
  56.000          90.000           -4.943e+00          -4.943e+00              78.799          -1.101e+02             300.440           4.000e+01     
  57.000          90.000           -5.082e+00          -5.082e+00              78.527          -1.103e+02             300.273           4.000e+01     
  58.000          90.000           -5.222e+00          -5.222e+00              78.246          -1.106e+02             300.155           4.000e+01     
  59.000          90.000           -5.364e+00          -5.364e+00              77.955          -1.109e+02             300.091           4.000e+01     
  60.000          90.000           -5.507e+00          -5.507e+00              77.654          -1.112e+02             300.086           4.000e+01     
  61.000          90.000           -5.652e+00          -5.652e+00              77.343          -1.116e+02             300.144           4.000e+01     
  62.000          90.000           -5.798e+00          -5.798e+00              77.021          -1.119e+02             300.273           4.000e+01     
  63.000          90.000           -5.946e+00          -5.946e+00              76.687          -1.123e+02             300.482           4.000e+01     
  64.000          90.000           -6.096e+00          -6.096e+00              76.341          -1.127e+02             300.780           4.000e+01     
  65.000          90.000           -6.247e+00          -6.247e+00              75.982          -1.131e+02             301.180           4.000e+01     
  66.000          90.000           -6.399e+00          -6.399e+00              75.610          -1.136e+02             301.696           4.000e+01     
  67.000          90.000           -6.552e+00          -6.552e+00              75.224          -1.140e+02             302.346           4.000e+01     
  68.000          90.000           -6.707e+00          -6.707e+00              74.824          -1.145e+02             303.152           4.000e+01     
  69.000          90.000           -6.863e+00          -6.863e+00              74.408          -1.151e+02             304.145           4.000e+01     
  70.000          90.000           -7.020e+00          -7.020e+00              73.977          -1.156e+02             305.358           4.000e+01     
  71.000          90.000           -7.179e+00          -7.179e+00              73.529          -1.163e+02             306.838           4.000e+01     
  72.000          90.000           -7.338e+00          -7.338e+00              73.064          -1.169e+02             308.644           4.000e+01     
  73.000          90.000           -7.498e+00          -7.498e+00              72.581          -1.176e+02             310.853           4.000e+01     
  74.000          90.000           -7.659e+00          -7.659e+00              72.079          -1.183e+02             313.564           4.000e+01     
  75.000          90.000           -7.821e+00          -7.821e+00              71.557          -1.191e+02             316.908           4.000e+01     
  76.000          90.000           -7.983e+00          -7.983e+00              71.014          -1.200e+02             321.049           4.000e+01     
  77.000          90.000           -8.147e+00          -8.147e+00              70.451          -1.208e+02             326.192           4.000e+01     
  78.000          90.000           -8.310e+00          -8.310e+00              69.864          -1.216e+02             332.565           4.000e+01     
  79.000          90.000           -8.474e+00          -8.474e+00              69.255          -1.224e+02             340.371           4.000e+01     
  80.000          90.000           -8.638e+00          -8.638e+00              68.621          -1.231e+02             349.680           4.000e+01     
  81.000          90.000           -8.803e+00          -8.803e+00              67.962          -1.234e+02               0.265           4.000e+01     
  82.000          90.000           -8.967e+00          -8.967e+00              67.277          -1.235e+02              11.502           4.000e+01     
  83.000          90.000           -9.131e+00          -9.131e+00              66.565          -1.232e+02              22.515           4.000e+01     
  84.000          90.000           -9.295e+00          -9.295e+00              65.825          -1.227e+02              32.522           4.000e+01     
  85.000          90.000           -9.459e+00          -9.459e+00              65.055          -1.219e+02              41.112           4.000e+01     
  86.000          90.000           -9.621e+00          -9.621e+00              64.256          -1.210e+02              48.233           4.000e+01     
  87.000          90.000           -9.783e+00          -9.783e+00              63.425          -1.202e+02              54.044           4.000e+01     
  88.000          90.000           -9.944e+00          -9.944e+00              62.563          -1.193e+02              58.770           4.000e+01     
  89.000          90.000           -1.010e+01          -1.010e+01              61.668          -1.184e+02              62.630           4.000e+01     
  90.000          90.000           -1.026e+01          -1.026e+01              60.739          -1.176e+02              65.808           4.000e+01     
  91.000          90.000           -1.042e+01          -1.042e+01              59.776          -1.169e+02              68.450           4.000e+01     
  92.000          90.000           -1.057e+01          -1.057e+01              58.778          -1.162e+02              70.669           4.000e+01     
  93.000          90.000           -1.072e+01          -1.072e+01              57.744          -1.155e+02              72.553           4.000e+01     
  94.000          90.000           -1.087e+01          -1.087e+01              56.674          -1.149e+02              74.168           4.000e+01     
  95.000          90.000           -1.102e+01          -1.102e+01              55.567          -1.143e+02              75.566           4.000e+01     
  96.000          90.000           -1.116e+01          -1.116e+01              54.424          -1.137e+02              76.788           4.000e+01     
  97.000          90.000           -1.130e+01          -1.130e+01              53.245          -1.132e+02              77.864           4.000e+01     
  98.000          90.000           -1.143e+01          -1.143e+01              52.029          -1.127e+02              78.820           4.000e+01     
  99.000          90.000           -1.156e+01          -1.156e+01              50.776          -1.123e+02              79.677           4.000e+01     
 100.000          90.000           -1.168e+01          -1.168e+01              49.489          -1.118e+02              80.451           4.000e+01     
 101.000          90.000           -1.180e+01          -1.180e+01              48.166          -1.114e+02              81.155           4.000e+01     
 102.000          90.000           -1.192e+01          -1.192e+01              46.810          -1.110e+02              81.800           4.000e+01     
 103.000          90.000           -1.202e+01          -1.202e+01              45.422          -1.106e+02              82.395           4.000e+01     
 104.000          90.000           -1.213e+01          -1.213e+01              44.003          -1.103e+02              82.949           4.000e+01     
 105.000          90.000           -1.222e+01          -1.222e+01              42.555          -1.099e+02              83.467           4.000e+01     
 106.000          90.000           -1.231e+01          -1.231e+01              41.081          -1.096e+02              83.955           4.000e+01     
 107.000          90.000           -1.239e+01          -1.239e+01              39.582          -1.093e+02              84.418           4.000e+01     
 108.000          90.000           -1.246e+01          -1.246e+01              38.062          -1.090e+02              84.859           4.000e+01     
 109.000          90.000           -1.252e+01          -1.252e+01              36.524          -1.087e+02              85.282           4.000e+01     
 110.000          90.000           -1.258e+01          -1.258e+01              34.970          -1.084e+02              85.691           4.000e+01     
 111.000          90.000           -1.262e+01          -1.262e+01              33.404          -1.082e+02              86.087           4.000e+01     
 112.000          90.000           -1.266e+01          -1.266e+01              31.829          -1.079e+02              86.474           4.000e+01     
 113.000          90.000           -1.269e+01          -1.269e+01              30.249          -1.077e+02              86.852           4.000e+01     
 114.000          90.000           -1.271e+01          -1.271e+01              28.668          -1.074e+02              87.224           4.000e+01     
 115.000          90.000           -1.272e+01          -1.272e+01              27.089          -1.072e+02              87.592           4.000e+01     
 116.000          90.000           -1.273e+01          -1.273e+01              25.516          -1.070e+02              87.956           4.000e+01     
 117.000          90.000           -1.272e+01          -1.272e+01              23.952          -1.068e+02              88.319           4.000e+01     
 118.000          90.000           -1.271e+01          -1.271e+01              22.400          -1.066e+02              88.681           4.000e+01     
 119.000          90.000           -1.269e+01          -1.269e+01              20.865          -1.064e+02              89.044           4.000e+01     
 120.000          90.000           -1.266e+01          -1.266e+01              19.349          -1.063e+02              89.408           4.000e+01     
 121.000          90.000           -1.263e+01          -1.263e+01              17.855          -1.061e+02              89.774           4.000e+01     
 122.000          90.000           -1.258e+01          -1.258e+01              16.385          -1.059e+02              90.143           4.000e+01     
 123.000          90.000           -1.253e+01          -1.253e+01              14.943          -1.058e+02              90.516           4.000e+01     
 124.000          90.000           -1.248e+01          -1.248e+01              13.530          -1.056e+02              90.893           4.000e+01     
 125.000          90.000           -1.242e+01          -1.242e+01              12.148          -1.055e+02              91.276           4.000e+01     
 126.000          90.000           -1.235e+01          -1.235e+01              10.798          -1.054e+02              91.664           4.000e+01     
 127.000          90.000           -1.228e+01          -1.228e+01               9.483          -1.052e+02              92.058           4.000e+01     
 128.000          90.000           -1.221e+01          -1.221e+01               8.203          -1.051e+02              92.459           4.000e+01     
 129.000          90.000           -1.213e+01          -1.213e+01               6.959          -1.050e+02              92.868           4.000e+01     
